Talasna duzina_Plava [nm]	 Intenzitet svetlosti_Plava [cd]
177.812	60.47999954
178.410	55.29999924
179.008	40.77999878
179.607	51.45999908
180.205	37.08000183
180.803	47.5
181.401	44.72000122
182.000	58.43999863
182.598	60.29999924
183.196	54.11999893
183.794	48.09999847
184.392	52.27999878
184.990	45.95999908
185.588	55.54000092
186.186	46.74000168
186.784	45.72000122
187.382	51.34000015
187.980	39.74000168
188.578	56.75999832
189.176	45.61999893
189.774	56.22000122
190.371	35.72000122
190.969	35.34000015
191.567	36.65999985
192.165	54.45999908
192.763	57.81999969
193.360	40.68000031
193.958	44.27999878
194.556	39.27999878
195.153	37.95999908
195.751	37.90000153
196.349	43.75999832
196.946	30.31999969
197.544	37.45999908
198.141	38.74000168
198.739	26.04000092
199.336	46.52000046
199.934	33.75999832
200.531	34.38000107
201.128	30.04000092
201.726	30.78000069
202.323	35.63999939
202.920	31.42000008
203.518	41.24000168
204.115	30.34000015
204.712	27.60000038
205.310	24.79999924
205.907	27.92000008
206.504	25.76000023
207.101	27.05999947
207.698	18.76000023
208.295	28.15999985
208.892	22.87999916
209.489	32
210.087	33.34000015
210.684	31.68000031
211.280	30.31999969
211.877	20.44000053
212.474	29.28000069
213.071	25.37999916
213.668	33.04000092
214.265	29.28000069
214.862	33.75999832
215.459	27.94000053
216.055	33.68000031
216.652	17.97999954
217.249	23.23999977
217.846	28.05999947
218.442	31.34000015
219.039	27.54000092
219.636	24.21999931
220.232	33.74000168
220.829	15.85999966
221.425	28.87999916
222.022	30.84000015
222.618	30.84000015
223.215	25.71999931
223.811	30.60000038
224.408	28.5
225.004	31.54000092
225.601	28.86000061
226.197	25.70000076
226.793	22.70000076
227.390	41.47999954
227.986	12.92000008
228.582	30.54000092
229.178	26.45999908
229.774	40.90000153
230.371	22.63999939
230.967	29.05999947
231.563	23.45999908
232.159	28.65999985
232.755	37.74000168
233.351	35.40000153
233.947	20.65999985
234.543	28.57999992
235.139	29.47999954
235.735	22.54000092
236.331	27.89999962
236.927	33.75999832
237.523	26.71999931
238.119	35.06000137
238.714	31.47999954
239.310	32.88000107
239.906	34.65999985
240.502	21.26000023
241.097	25.60000038
241.693	14.92000008
242.289	30.68000031
242.884	34.77999878
243.480	29.79999924
244.076	27.60000038
244.671	18.78000069
245.267	25.29999924
245.862	25.10000038
246.458	32.29999924
247.053	27.89999962
247.648	36.11999893
248.244	21.94000053
248.839	29.23999977
249.435	31.62000084
250.030	31.44000053
250.625	25.15999985
251.220	41.72000122
251.816	24.29999924
252.411	39.59999847
253.006	38.77999878
253.601	31.26000023
254.196	33.65999985
254.791	23.89999962
255.387	36.27999878
255.982	35.54000092
256.577	36.70000076
257.172	31.63999939
257.767	46.29999924
258.362	39.97999954
258.956	37.63999939
259.551	37.63999939
260.146	36.34000015
260.741	35.5
261.336	34.70000076
261.931	26.65999985
262.525	31.44000053
263.120	39.74000168
263.715	38.25999832
264.310	37.25999832
264.904	37.31999969
265.499	39.75999832
266.093	39.31999969
266.688	44.72000122
267.282	38
267.877	40.84000015
268.471	45.91999817
269.066	39.36000061
269.660	34.86000061
270.255	33.43999863
270.849	42.86000061
271.443	43.95999908
272.038	34.41999817
272.632	43.13999939
273.226	46.13999939
273.821	29.70000076
274.415	43.40000153
275.009	40.27999878
275.603	46.56000137
276.197	45.15999985
276.791	43.06000137
277.385	44.25999832
277.979	43.75999832
278.574	45.54000092
279.168	41.56000137
279.761	49.43999863
280.355	34.38000107
280.949	33.27999878
281.543	41.86000061
282.137	37.75999832
282.731	44.79999924
283.325	44.20000076
283.918	33.43999863
284.512	45.22000122
285.106	34.79999924
285.700	29.07999992
286.293	26.15999985
286.887	36.91999817
287.480	29.36000061
288.074	31.45999908
288.668	27.84000015
289.261	23.68000031
289.855	24.79999924
290.448	55.86000061
291.042	34.70000076
291.635	61.68000031
292.228	53.40000153
292.822	49.84000015
293.415	46.18000031
294.008	46.84000015
294.602	43.91999817
295.195	47.41999817
295.788	40.65999985
296.381	50.54000092
296.974	36.54000092
297.567	37.02000046
298.160	36.13999939
298.754	55.40000153
299.347	31.87999916
299.940	40.59999847
300.533	36.70000076
301.126	31.73999977
301.718	44.41999817
302.311	33.72000122
302.904	43.27999878
303.497	46.45999908
304.090	29.36000061
304.683	35.31999969
305.275	39.84000015
305.868	34.38000107
306.461	34.04000092
307.053	42
307.646	45.41999817
308.239	40.88000107
308.831	36.11999893
309.424	38.5
310.016	33.93999863
310.609	36.68000031
311.201	35.74000168
311.794	31.89999962
312.386	33.52000046
312.979	27.21999931
313.571	46.40000153
314.163	35.86000061
314.756	36.47999954
315.348	49.45999908
315.940	33.79999924
316.532	44.56000137
317.124	30.5
317.717	35.15999985
318.309	35.79999924
318.901	32.58000183
319.493	38.41999817
320.085	42.52000046
320.677	32.02000046
321.269	34.04000092
321.861	36.41999817
322.453	48.68000031
323.045	40.27999878
323.636	47.04000092
324.228	44.61999893
324.820	43.27999878
325.412	42.18000031
326.003	38.27999878
326.595	36.40000153
327.187	38.34000015
327.779	35.56000137
328.370	46.81999969
328.962	34.40000153
329.553	40.88000107
330.145	33.06000137
330.736	35.04000092
331.328	24.05999947
331.919	43.31999969
332.511	35.95999908
333.102	35.04000092
333.693	33.22000122
334.285	35.45999908
334.876	40.68000031
335.467	38.09999847
336.058	30.5
336.650	46.34000015
337.241	32.88000107
337.832	26.95999908
338.423	30.31999969
339.014	42.22000122
339.605	16.73999977
340.196	33.43999863
340.787	33.77999878
341.378	28.94000053
341.969	16.52000046
342.560	41.11999893
343.151	34.25999832
343.742	34.08000183
344.332	36.91999817
344.923	31.57999992
345.514	21.70000076
346.105	22.26000023
346.695	27.15999985
347.286	32.65999985
347.877	27.34000015
348.467	37.72000122
349.058	27.65999985
349.648	25.10000038
350.239	25.63999939
350.829	30.10000038
351.420	30.52000046
352.010	37.25999832
352.601	22.04000092
353.191	26.12000084
353.781	28.78000069
354.371	17.28000069
354.962	32.74000168
355.552	34.29999924
356.142	21.86000061
356.732	27.04000092
357.322	33.70000076
357.913	28.36000061
358.503	31.52000046
359.093	36.38000107
359.683	38.11999893
360.273	28.68000031
360.863	27.42000008
361.453	32.15999985
362.042	24.13999939
362.632	29.84000015
363.222	21.86000061
363.812	29.55999947
364.402	40.11999893
364.991	18.70000076
365.581	24
366.171	35.08000183
366.760	26.34000015
367.350	22.39999962
367.940	23.15999985
368.529	14.80000019
369.119	30.95999908
369.708	35.61999893
370.298	25.65999985
370.887	32.54000092
371.476	24.81999969
372.066	30.92000008
372.655	28.97999954
373.244	26.68000031
373.834	26.05999947
374.423	30.92000008
375.012	37.27999878
375.601	29.86000061
376.190	33.43999863
376.779	36.41999817
377.368	26.34000015
377.957	33.27999878
378.546	29.97999954
379.135	29.44000053
379.724	30.78000069
380.313	30.52000046
380.902	23.94000053
381.491	44.18000031
382.080	32.54000092
382.669	40.06000137
383.257	24.60000038
383.846	30.42000008
384.435	35.09999847
385.023	33.54000092
385.612	27.21999931
386.201	42.09999847
386.789	40.84000015
387.378	33.70000076
387.966	23.65999985
388.555	29.28000069
389.143	31.57999992
389.732	35.90000153
390.320	34.06000137
390.908	42.27999878
391.497	24.34000015
392.085	29.73999977
392.673	31.36000061
393.261	31.13999939
393.849	39.75999832
394.438	31.79999924
395.026	40.24000168
395.614	38.59999847
396.202	24.95999908
396.790	33.47999954
397.378	38.41999817
397.966	30.45999908
398.554	42.93999863
399.142	40.95999908
399.729	43.52000046
400.317	33.95999908
400.905	36.41999817
401.493	38
402.080	48.09999847
402.668	50.68000031
403.256	45.95999908
403.843	40.93999863
404.431	46.90000153
405.019	51.52000046
405.606	56.13999939
406.194	46.27999878
406.781	60.47999954
407.368	48.27999878
407.956	48.59999847
408.543	61.47999954
409.131	55.09999847
409.718	50.43999863
410.305	58.52000046
410.892	66.66000366
411.479	54.91999817
412.067	70.69999695
412.654	52.95999908
413.241	57.5
413.828	53.84000015
414.415	68.55999756
415.002	62.11999893
415.589	67.33999634
416.176	84.45999908
416.763	85.59999847
417.350	67.59999847
417.936	87.48000336
418.523	88.45999908
419.110	85.22000122
419.697	96.58000183
420.283	96.33999634
420.870	106.4599991
421.457	100.6800003
422.043	111.8399963
422.630	133.4799957
423.216	137.3800049
423.803	146.0800018
424.389	149.0200043
424.976	169.9400024
425.562	187.7200012
426.148	211.6199951
426.735	214.1600037
427.321	222.1199951
427.907	240.1600037
428.494	264.019989
429.080	302.6799927
429.666	334.9599915
430.252	334.3599854
430.838	364.5799866
431.424	407.3599854
432.010	456.6600037
432.596	492.2000122
433.182	563.4000244
433.768	605.0599976
434.354	669.4199829
434.940	739.5599976
435.526	794.4199829
436.111	873.5599976
436.697	1010.599976
437.283	1073.079956
437.869	1167.199951
438.454	1289.420044
439.040	1415
439.625	1566.680054
440.211	1697.560059
440.796	1890.160034
441.382	2092.02002
441.967	2236.300049
442.553	2475.879883
443.138	2755.360107
443.723	2992.899902
444.309	3264.179932
444.894	3556.939941
445.479	3968.280029
446.064	4332.439941
446.650	4788.259766
447.235	5165.299805
447.820	5648.459961
448.405	6158.799805
448.990	6718.640137
449.575	7356.839844
450.160	8102.080078
450.745	8923.639648
451.330	9689.44043
451.915	10716.12012
452.499	11645.90039
453.084	12925.21973
453.669	14124.54004
454.254	15458.7002
454.838	16886.83984
455.423	18840.56055
456.008	20436.35938
456.592	22557.51953
457.177	24755.88086
457.761	26759.98047
458.346	29462.59961
458.930	31582.93945
459.514	34536.30078
460.099	36865.10156
460.683	40154.48047
461.267	42844.10156
461.852	45577.48047
462.436	48039.78125
463.020	50001.26172
463.604	52429.48047
464.188	54454.94141
464.772	55744.96094
465.356	56698.67969
465.940	57865.37891
466.524	58162.44141
467.108	58431.64063
467.692	58606.87891
468.276	57979.14063
468.860	57007.67969
469.444	56159.28125
470.028	54845.66016
470.611	52773.85938
471.195	51189.33984
471.779	49264.78125
472.362	47468.21875
472.946	44876.14063
473.529	42654.32031
474.113	40429.28125
474.696	38127.16016
475.280	36066.53906
475.863	34102.85938
476.447	32175.19922
477.030	30544.90039
477.613	28924.53906
478.197	27491.14063
478.780	26016.51953
479.363	24904.53906
479.946	23594.80078
480.529	22447.16016
481.112	21575.30078
481.695	20562.58008
482.278	19480.64063
482.861	18561.25977
483.444	17700.14063
484.027	16801.08008
484.610	15951.40039
485.193	15089.54004
485.776	14224.83984
486.358	13318.12012
486.941	12604.58008
487.524	11813.32031
488.106	11025.66016
488.689	10316.59961
489.272	9635.519531
489.854	9005.740234
490.437	8385.360352
491.019	7773.52002
491.602	7249.5
492.184	6729.939941
492.766	6305.5
493.349	5884.580078
493.931	5506.279785
494.513	5148.160156
495.095	4808.160156
495.678	4550.100098
496.260	4206.600098
496.842	3991.419922
497.424	3768.139893
498.006	3523.02002
498.588	3334.280029
499.170	3158.97998
499.752	3002.399902
500.334	2829.860107
500.916	2668.899902
501.497	2530.600098
502.079	2389.23999
502.661	2277.73999
503.243	2166.719971
503.824	2020.380005
504.406	1914.040039
504.987	1803.959961
505.569	1691.579956
506.151	1619.97998
506.732	1536.97998
507.313	1418.119995
507.895	1356.459961
508.476	1271.76001
509.058	1204.640015
509.639	1133.560059
510.220	1076.119995
510.801	1017.200012
511.382	952.0999756
511.964	928.1400146
512.545	858.2199707
513.126	842.5200195
513.707	801.7199707
514.288	755.460022
514.869	737.9799805
515.450	706.2199707
516.031	668.2000122
516.611	643.8400269
517.192	630.0999756
517.773	594.9799805
518.354	578.7199707
518.934	545.7600098
519.515	534.2600098
520.096	517.6400146
520.676	506.2799988
521.257	470.6400146
521.837	476.1199951
522.418	459.3599854
522.998	439.3599854
523.579	415.8200073
524.159	413.1000061
524.739	403.6400146
525.320	391.3399963
525.900	377.1199951
526.480	369.019989
527.060	360.5799866
527.640	346.8599854
528.220	318.7600098
528.800	327.7399902
529.380	321.0799866
529.960	315.3599854
530.540	279.6400146
531.120	289.8399963
531.700	279.2799988
532.280	283.6400146
532.860	257.0599976
533.440	275.3200073
534.019	250.3200073
534.599	252.8800049
535.179	239.2200012
535.758	248.7599945
536.338	251.9600067
536.917	224.9799957
537.497	229.2200012
538.076	226.6799927
538.656	216.1199951
539.235	221.5800018
539.814	206.0200043
540.393	212.9400024
540.973	211.3600006
541.552	213.4400024
542.131	201.3200073
542.710	202.1600037
543.289	195.0800018
543.868	207
544.447	197.8200073
545.026	182.6399994
545.605	184.3200073
546.184	182
546.763	172.6199951
547.342	178.6600037
547.921	167.0399933
548.499	173.1199951
549.078	155.8600006
549.657	171.1600037
550.235	166.0399933
550.814	159
551.393	153.3200073
551.971	150.1600037
552.550	155.6399994
553.128	147.5399933
553.706	147.3600006
554.285	150.6199951
554.863	146.3200073
555.441	142.3200073
556.020	140.6600037
556.598	148.9199982
557.176	135.6000061
557.754	137.0399933
558.332	134.8999939
558.910	127.0199966
559.488	123
560.066	131.4199982
560.644	119.5
561.222	126.5800018
561.800	116.7799988
562.378	110.4000015
562.955	119.1399994
563.533	116.1399994
564.111	120.5800018
564.688	111.5599976
565.266	121.0999985
565.844	110.0199966
566.421	124.5
566.999	103.4199982
567.576	108.9199982
568.154	120.8799973
568.731	106.6200027
569.308	113.3600006
569.886	99.5
570.463	95.33999634
571.040	113
571.617	108.3399963
572.194	102.5800018
572.771	113.8399963
573.349	97.09999847
573.926	99.54000092
574.503	109.0999985
575.079	100.3399963
575.656	100.3000031
576.233	102.9199982
576.810	105.9599991
577.387	94.62000275
577.964	91.22000122
578.540	91.91999817
579.117	96.04000092
579.693	91.36000061
580.270	94.83999634
580.847	101.3000031
581.423	93.26000214
582.000	84.44000244
582.576	96.68000031
583.152	85.95999908
583.729	84.77999878
584.305	84.12000275
584.881	93.37999725
585.457	86.36000061
586.034	86.09999847
586.610	87.36000061
587.186	70.76000214
587.762	73
588.338	67.22000122
588.914	78.41999817
589.490	76.19999695
590.066	83.55999756
590.641	78.80000305
591.217	83.16000366
591.793	64.95999908
592.369	68.5
592.945	82.86000061
593.520	78.54000092
594.096	57.15999985
594.671	73.59999847
595.247	57.52000046
595.822	60.90000153
596.398	59.75999832
596.973	68.23999786
597.549	65.83999634
598.124	80.90000153
598.699	70.68000031
599.274	61.58000183
599.850	65.5
600.425	59.77999878
601.000	56.27999878
601.575	54.5
602.150	55.18000031
602.725	57.5
603.300	60.52000046
603.875	60.72000122
604.450	49.86000061
605.024	54.13999939
605.599	45.52000046
606.174	47.54000092
606.749	54.08000183
607.323	48.09999847
607.898	53.27999878
608.473	49.86000061
609.047	37.06000137
609.622	49.79999924
610.196	40.43999863
610.771	41.61999893
611.345	48.77999878
611.919	45.18000031
612.493	41.06000137
613.068	45.13999939
613.642	24.63999939
614.216	32.31999969
614.790	35.54000092
615.364	32.81999969
615.938	35.40000153
616.512	38.18000031
617.086	32.97999954
617.660	32.77999878
618.234	35.54000092
618.808	28.15999985
619.382	17.52000046
619.955	28.70000076
620.529	29.44000053
621.103	26.02000046
621.676	38.74000168
622.250	32.52000046
622.824	38.59999847
623.397	31.44000053
623.971	29.39999962
624.544	22.81999969
625.117	26.70000076
625.691	39.20000076
626.264	23.87999916
626.837	30.21999931
627.410	23.21999931
627.984	32.18000031
628.557	24.57999992
629.130	24.04000092
629.703	17.18000031
630.276	23.86000061
630.849	19.97999954
631.422	33.54000092
631.994	21.76000023
632.567	11.88000011
633.140	23.97999954
633.713	25.02000046
634.285	23.81999969
634.858	15.64000034
635.431	13.47999954
636.003	17.89999962
636.576	19.78000069
637.148	12.89999962
637.721	5.360000134
638.293	13.64000034
638.865	20.63999939
639.438	18.52000046
640.010	24.68000031
640.582	11.53999996
641.154	8.020000458
641.727	18.13999939
642.299	7.860000134
642.871	14.80000019
643.443	11.92000008
644.015	25.92000008
644.587	9.680000305
645.159	15.02000046
645.730	10.61999989
646.302	13.57999992
646.874	17.84000015
647.446	-0.579999983
648.017	10.52000046
648.589	12.07999992
649.161	8.520000458
649.732	8.539999962
650.304	14.92000008
650.875	21.42000008
651.446	5.440000057
652.018	12.11999989
652.589	13.38000011
653.160	5.940000057
653.732	12.27999973
654.303	3.059999943
654.874	3.380000114
655.445	16.89999962
656.016	5.519999981
656.587	4.139999866
657.158	2.180000067
657.729	6.539999962
658.300	2.799999952
658.871	11.30000019
659.442	5.480000019
660.012	4.400000095
660.583	0.319999993
661.154	2.359999895
661.724	7.800000191
662.295	5.139999866
662.866	6.380000114
663.436	6.21999979
664.007	6.28000021
664.577	-8.880000114
665.147	12.38000011
665.718	5.659999847
666.288	1.74000001
666.858	4.159999847
667.428	-2.5
667.999	-10.38000011
668.569	2.559999943
669.139	12.60000038
669.709	-1.299999952
670.279	-5.78000021
670.849	5.760000229
671.418	4.599999905
671.988	3.039999962
672.558	-4.039999962
673.128	0.439999998
673.698	-6.28000021
674.267	-2.220000029
674.837	12.89999962
675.406	1
675.976	-6.860000134
676.545	-3.640000105
677.115	2.420000076
677.684	-0.340000004
678.254	-1.25999999
678.823	1.360000014
679.392	1.460000038
679.961	-1.019999981
680.531	-1.960000038
681.100	-4.900000095
681.669	1.340000033
682.238	-5.260000229
682.807	-3.579999924
683.376	-1.019999981
683.945	3.619999886
684.514	4.119999886
685.082	-6.320000172
685.651	-3.980000019
686.220	-2.079999924
686.789	-1.600000024
687.357	-3.660000086
687.926	-8.93999958
688.494	-0.920000017
689.063	-7.28000021
689.631	-3.25999999
690.200	-2.25999999
690.768	-3.420000076
691.337	-11.80000019
691.905	0.920000017
692.473	-15.77999973
693.041	1.559999943
693.609	-11.14000034
694.178	-1.75999999
694.746	1.879999995
695.314	-6.639999866
695.882	2.220000029
696.450	-3.119999886
697.017	-6.440000057
697.585	-5.300000191
698.153	-13.26000023
698.721	-10.96000004
699.288	-6.940000057
699.856	-0.400000006
700.424	-1.200000048
700.991	-3.799999952
701.559	-8.399999619
702.126	5.039999962
702.694	4.440000057
703.261	4.340000153
703.828	-3.480000019
704.396	-3.059999943
704.963	-11.22000027
705.530	-4.760000229
706.097	-3.720000029
706.664	-6.860000134
707.232	-3.380000114
707.799	-5.300000191
708.365	-14.27999973
708.932	-7.639999866
709.499	-8.420000076
710.066	-2.880000114
710.633	-0.439999998
711.200	-8.319999695
711.766	-7.420000076
712.333	-13.26000023
712.900	6.699999809
713.466	-5.460000038
714.033	-11.5
714.599	-7.440000057
715.166	-16.89999962
715.732	-12.02000046
716.298	-12.57999992
716.865	-7.420000076
717.431	-15.26000023
717.997	2.319999933
718.563	-8.960000038
719.129	-11.39999962
719.695	-3.319999933
720.261	-5.579999924
720.827	-8.56000042
721.393	1.5
721.959	-14.38000011
722.525	-10.80000019
723.091	-7.179999828
723.656	-17.05999947
724.222	-23.44000053
724.788	-6.820000172
725.353	-4.559999943
725.919	-16.28000069
726.484	-14.02000046
727.050	-2.700000048
727.615	-14.65999985
728.181	-10.23999977
728.746	-15.27999973
729.311	-12.56000042
729.876	-14.81999969
730.442	-2.059999943
731.007	-11.60000038
731.572	-2.539999962
732.137	-1.74000001
732.702	-7.059999943
733.267	-5.420000076
733.832	-14.89999962
734.397	-11.06000042
734.961	-3.359999895
735.526	-5.260000229
736.091	-9.720000267
736.655	-10.14000034
737.220	-6.519999981
737.785	0.119999997
738.349	-18.68000031
738.914	-9.899999619
739.478	-9.579999924
740.042	-10.43999958
740.607	-15.61999989
741.171	-2.880000114
741.735	-22.21999931
742.299	-23.28000069
742.864	-14.85999966
743.428	-4.300000191
743.992	-21.07999992
744.556	-9.93999958
745.120	-12.61999989
745.684	-11.81999969
746.248	-7.360000134
746.811	-17.86000061
747.375	-3.779999971
747.939	-17.65999985
748.503	-17.73999977
749.066	-11.47999954
749.630	-13.26000023
750.193	-17.21999931
750.757	-5.820000172
751.320	-8.880000114
751.884	-8.180000305
752.447	-10.53999996
753.010	-8.720000267
753.573	-21.79999924
754.137	-13.81999969
754.700	-10.60000038
755.263	-10.65999985
755.826	-17.81999969
756.389	-10.76000023
756.952	-7.539999962
757.515	-14.84000015
758.078	-7.840000153
758.641	-9.180000305
759.203	-10.06000042
759.766	-10.23999977
760.329	-18.28000069
760.891	-11.52000046
761.454	-11.47999954
762.016	-17.23999977
762.579	-22.54000092
763.141	-6.980000019
763.704	-11.56000042
764.266	-6.440000057
764.828	-12.34000015
765.391	-12
765.953	-16.23999977
766.515	-10.56000042
767.077	-12.81999969
767.639	-7.380000114
768.201	-11.42000008
768.763	-11.39999962
769.325	-19.26000023
769.887	-16.5
770.449	-11.53999996
771.010	-14
771.572	0.479999989
772.134	-12.07999992
772.695	-12.03999996
773.257	-6.900000095
773.818	-17.70000076
774.380	-8.399999619
774.941	-17.15999985
775.503	-21.13999939
776.064	-10.18000031
776.625	-15.93999958
777.187	-12.10000038
777.748	-19.68000031
778.309	-7.699999809
778.870	-5.21999979
779.431	-7.28000021
779.992	-22.05999947
780.553	5.880000114
781.114	-10.34000015
781.675	-4.099999905
782.235	-10.80000019
782.796	-16.47999954
783.357	6.420000076
783.918	-4.679999828
784.478	-6.139999866
785.039	5.940000057
785.599	-9.739999771
786.160	0.920000017
786.720	-6
787.280	-8.960000038
787.841	4.800000191
788.401	-13.35999966
788.961	-13.93999958
789.521	-0.779999971
790.081	-12.93999958
790.641	-12.65999985
791.201	-5.320000172
791.761	-7.059999943
792.321	1.039999962
792.881	-10.68000031
793.441	-1.539999962
794.001	-5.340000153
794.560	-11.56000042
795.120	-6.599999905
795.680	-8.800000191
796.239	-2.660000086
796.799	-13.10000038
797.358	-11.65999985
797.918	2.5
798.477	-1.840000033
799.036	-2.180000067
799.596	-0.239999995
800.155	-5
800.714	-4.340000153
801.273	-12.14000034
801.832	-2.559999943
802.391	-4.900000095
802.950	-1.019999981
803.509	-10.22000027
804.068	-9.93999958
804.627	0.899999976
805.186	-11.26000023
805.744	-10.31999969
806.303	5.519999981
806.862	1.080000043
807.420	-6.159999847
807.979	-4.179999828
808.537	-9.119999886
809.096	-15.89999962
809.654	-5.679999828
810.212	-7.360000134
810.771	-3.640000105
811.329	-7.400000095
811.887	-2.24000001
812.445	-8.920000076
813.003	-5.460000038
813.561	-5.460000038
814.119	0.059999999
814.677	-3.799999952
815.235	-2.140000105
815.793	-10.81999969
816.351	-12.77999973
816.908	-1.559999943
817.466	-5.940000057
818.024	-7.460000038
818.581	-7.639999866
819.139	0.460000008
819.696	-5.019999981
820.253	-16.97999954
820.811	-2.539999962
821.368	-10.42000008
821.925	-0.75999999
822.483	-12.72000027
823.040	-13.19999981
823.597	-7.920000076
824.154	-6.78000021
824.711	-9.56000042
825.268	-7.800000191
825.825	-16.97999954
826.382	-6.119999886
826.939	6.940000057
827.495	-19.62000084
828.052	-7
828.609	-6.400000095
829.165	-14.97999954
829.722	-11.30000019
830.278	-0.079999998
830.835	-7.380000114
831.391	-12.88000011
831.948	-9.739999771
832.504	-9.300000191
833.060	2.420000076
833.616	-5.079999924
834.172	-2.24000001
834.729	-8.539999962
835.285	-2.680000067
835.841	-12.47999954
836.397	-10.31999969
836.952	-10.11999989
837.508	-3.859999895
838.064	-7.199999809
838.620	-11.42000008
839.176	-6.300000191
839.731	-0.74000001
840.287	1
840.842	-5.400000095
841.398	-9.760000229
841.953	-14.11999989
842.509	2.920000076
843.064	-15.57999992
843.619	-11.46000004
844.174	-7
844.730	-1.799999952
845.285	-11.84000015
845.840	-10.85999966
846.395	2.400000095
846.950	-8.239999771
847.505	-9.739999771
848.060	-8.079999924
848.614	-2.640000105
849.169	-14.47999954
849.724	0.400000006
850.278	-22.71999931
850.833	-1.080000043
851.388	-0.280000001
851.942	-10.60000038
852.497	-3.019999981
853.051	-17.55999947
853.605	-8.06000042
854.160	-4.300000191
854.714	-5.679999828
855.268	-10.07999992
855.822	-0.02
856.376	-6.539999962
856.930	-2.299999952
857.484	-4.400000095
858.038	-14.34000015
858.592	-3.380000114
859.146	-3.24000001
859.700	2.25999999
860.253	-10.84000015
860.807	-5.380000114
861.361	-8.819999695
861.914	-4.940000057
862.468	-2.880000114
863.021	-1.220000029
863.575	-10.56000042
864.128	-10.77999973
864.681	-7.179999828
865.235	5.300000191
865.788	-11.57999992
866.341	-3.5
866.894	-2.480000019
867.447	-1
868.000	-14.19999981
868.553	0.600000024
869.106	-4.980000019
869.659	-3.799999952
870.211	1.919999957
870.764	-5.78000021
871.317	-3.839999914
871.870	-4.619999886
872.422	-3.779999971
872.975	-18.04000092
873.527	-5.599999905
874.079	-8.880000114
874.632	-0.340000004
875.184	-11.73999977
875.736	-21.42000008
876.289	-5.440000057
876.841	-6.199999809
877.393	-2.799999952
877.945	-11.80000019
878.497	-10.02000046
879.049	-6.980000019
879.601	-8
880.152	-17.62000084
880.704	-5.420000076
881.256	3.859999895
881.808	-4.579999924
882.359	-9.760000229
882.911	-5.139999866
883.462	-11.68000031
884.014	-7.960000038
884.565	-6.760000229
885.117	-12.02000046
885.668	0.980000019
886.219	-14.60000038
886.770	-11.30000019
887.321	-8.840000153
887.872	-8.819999695
888.424	-7.239999771
888.974	-17.18000031
889.525	-4.639999866
890.076	-5.760000229
890.627	-18.15999985
891.178	-23.54000092
891.729	-1.25999999
892.279	-11.35999966
892.830	-12.14000034
893.380	-17.57999992
893.931	-1.860000014
894.481	-4.739999771
895.032	-6.059999943
895.582	-13.18000031
896.132	-11.97999954
896.682	-13.57999992
897.233	-13.23999977
897.783	-10.18000031
898.333	-9.739999771
898.883	-8.239999771
899.433	-13.68000031
899.983	-16.94000053
900.533	-12.43999958
901.082	-12.81999969
901.632	-5.920000076
902.182	-8.399999619
902.731	-10.52000046
903.281	-14.57999992
903.831	-13.31999969
904.380	-13.43999958
904.929	-14.97999954
905.479	-16.15999985
906.028	-7.71999979
906.577	0.079999998
907.127	-2.619999886
907.676	-20.92000008
908.225	-11.02000046
908.774	-8.680000305
909.323	-9.319999695
909.872	-8.720000267
910.421	-25.97999954
910.969	-20.23999977
911.518	-17.68000031
912.067	0.720000029
912.616	-14.42000008
913.164	-15.73999977
913.713	-1.960000038
914.261	-5.920000076
914.810	-22.71999931
915.358	-14.02000046
915.906	-13.69999981
916.455	-16.31999969
917.003	-7.179999828
917.551	0.079999998
918.099	-5.860000134
918.647	-3.180000067
919.195	-10.72000027
919.743	-13.52000046
920.291	-18.07999992
920.839	-11.53999996
921.387	-15.5
921.934	-12.22000027
922.482	-14.60000038
923.030	1.360000014
923.577	-16.21999931
924.125	-11.38000011
924.672	-13.52000046
925.219	-12.06000042
925.767	-13.57999992
926.314	-15.5
926.861	-17.79999924
927.409	-9.380000114
927.956	-15.80000019
928.503	-5.920000076
929.050	-4.619999886
929.597	-8.020000458
930.143	-4.920000076
930.690	-7.639999866
931.237	-17.57999992
931.784	-7.340000153
932.331	-14.31999969
932.877	-2.299999952
933.424	-7.440000057
933.970	-15.14000034
934.517	-11.56000042
935.063	-15.42000008
935.609	-10.18000031
936.156	-13.14000034
936.702	-10.53999996
937.248	-16.28000069
937.794	-15.46000004
938.340	-16.45999908
938.886	-11.43999958
939.432	-5.800000191
939.978	-27.04000092
940.524	-9.720000267
941.070	-9.380000114
941.616	-25.26000023
942.161	-17.34000015
942.707	-11.34000015
943.252	-18.13999939
943.798	-15.38000011
944.343	-4.940000057
944.889	-14
945.434	-10.52000046
945.979	-16.34000015
946.525	-20.71999931
947.070	-12.89999962
947.615	-23.10000038
948.160	-5.380000114
948.705	-7.900000095
949.250	-17.37999916
949.795	-16.81999969
950.340	-18.79999924
950.884	-14.69999981
951.429	-8.619999886
951.974	-17.12000084
952.518	-7.239999771
953.063	-6.679999828
953.607	-10.69999981
954.152	-14.27999973
954.696	-4.119999886
955.241	-17.18000031
955.785	-17.28000069
956.329	-13.97999954
956.873	-17.45999908
957.417	-18.63999939
957.961	-20.52000046
958.505	-35.18000031
959.049	-14.02000046
959.593	-8.06000042
960.137	-16.05999947
960.681	-13.89999962
961.224	-11.88000011
961.768	-19.21999931
962.312	-15.89999962
962.855	-18.81999969
963.399	-20.36000061
963.942	-20.26000023
964.486	-16.57999992
965.029	-24.87999916
965.572	-18.94000053
966.115	-22.94000053
966.658	-19.79999924
967.202	-20.18000031
967.745	-10.60000038
968.288	-12.96000004
968.830	-18.44000053
969.373	-15.02000046
969.916	-19.37999916
970.459	-24.81999969
971.002	-13.06000042
971.544	-19.63999939
972.087	-19.79999924
972.629	-9.220000267
973.172	-14.89999962
973.714	-13.89999962
974.256	-15.68000031
974.799	-25.63999939
975.341	-19.65999985
975.883	-25.5
976.425	-11.80000019
976.967	-20.73999977
977.509	-14.39999962
978.051	-20.78000069
978.593	-7.079999924
979.135	-20.97999954
979.677	-16.13999939
980.218	-21.37999916
980.760	-14.10000038
981.302	-15.31999969
981.843	-26.13999939
982.385	-23.92000008
982.926	-12.80000019
983.467	-20.28000069
984.009	-7.460000038
984.550	-30.94000053
985.091	-23.86000061
985.632	-10.96000004
986.173	-16.89999962
986.714	-25.47999954
987.255	-15.76000023
987.796	-0.879999995
988.337	-15.39999962
988.878	-14.38000011
989.419	-12.81999969
989.959	-21.44000053
990.500	-16.54000092
991.040	-22.84000015
991.581	-13.68000031
992.121	-17.07999992
992.662	-15.64000034
993.202	-17.47999954
993.742	-20.44000053
994.282	-21.28000069
994.823	-11.03999996
995.363	-9.680000305
995.903	-17.02000046
996.443	-16.92000008
996.983	-20.89999962
997.522	-0.639999986
998.062	-6.079999924
998.602	-8.760000229
999.142	-12.80000019
999.681	-19.79999924
1000.221	-16.95999908
1000.760	-10.03999996
1001.300	-15.5
1001.839	-21.05999947
1002.379	-11.47999954
1002.918	-11.88000011
1003.457	-15.64000034
1003.996	-18.23999977
1004.535	-13.56000042
1005.074	-28.73999977
1005.613	-22.31999969
1006.152	-15.22000027
1006.691	-20.63999939
1007.230	-9.340000153
1007.769	-16.10000038
1008.307	-17.57999992
1008.846	-11.85999966
1009.384	-15.43999958
1009.923	-8.840000153
1010.461	-5.400000095
1011.000	-12.88000011
1011.538	-8.380000114
1012.076	-9.319999695
1012.615	-13.53999996
1013.153	-16.97999954
1013.691	-3.880000114
1014.229	-15.84000015
1014.767	-12.68000031
1015.305	-17.10000038
1015.843	-5.019999981
1016.380	-18.92000008
1016.918	-12.64000034
1017.456	-17.12000084
1017.993	-16.15999985
1018.531	-10.61999989
1019.069	-14.76000023
1019.606	-3.480000019
1020.143	-3.440000057
1020.681	-6.239999771
1021.218	-15.11999989
1021.755	-2.539999962
1022.292	-7.079999924
1022.829	-5.920000076
1023.366	-8.880000114
1023.903	-13.84000015
1024.440	-3.75999999
1024.977	-11.88000011
1025.514	-11.14000034
1026.051	-5.300000191
1026.587	-3.599999905
1027.124	-0.02
1027.661	-5
1028.197	1.159999967
1028.733	-9.43999958
1029.270	-5.21999979
1029.806	2.099999905
1030.342	1.139999986
1030.879	-1.379999995
1031.415	-0.200000003
1031.951	0.519999981
1032.487	3.519999981
1033.023	11.57999992
1033.559	-1.379999995
1034.094	-6.019999981
1034.630	-2
1035.166	-7.28000021
1035.702	4.440000057
1036.237	6.539999962
1036.773	13.56000042
1037.308	5.960000038
1037.844	14.14000034
1038.379	11.57999992
1038.914	19.68000031
1039.449	1.120000005
1039.985	11.92000008
1040.520	12
1041.055	8.659999847
1041.590	6
1042.125	14.18000031
1042.660	21.37999916
1043.194	11.42000008
1043.729	12.96000004
1044.264	25.45999908
1044.798	25.39999962
1045.333	15.10000038
1045.868	19.31999969
1046.402	16.94000053
1046.936	21.47999954
1047.471	22.37999916
1048.005	14.27999973
1048.539	16
1049.073	26.70000076
1049.607	16.28000069
1050.141	34.63999939
1050.675	16.47999954
1051.209	23.55999947
1051.743	17.65999985
1052.277	14.93999958
1052.811	27.05999947
1053.344	12.85999966
1053.878	29.21999931
1054.411	23.34000015
1054.945	24.89999962
1055.478	14.23999977
1056.012	23.84000015
1056.545	25.07999992
1057.078	24.97999954
1057.611	28.12000084
1058.145	19.05999947
1058.678	24.60000038
1059.211	11.73999977
1059.744	30.92000008
1060.276	22.84000015
1060.809	17.45999908
1061.342	18.07999992
1061.875	17.05999947
1062.407	23.02000046
1062.940	16.02000046
1063.472	10.22000027
1064.005	20.87999916
1064.537	22.05999947
1065.069	12.97999954
1065.602	8.800000191
1066.134	19.57999992
1066.666	26.23999977
1067.198	3.039999962
1067.730	12.61999989
1068.262	14.92000008
1068.794	7.300000191
1069.326	3.619999886
1069.857	16.37999916
1070.389	8.600000381
1070.921	10.65999985
1071.452	11.80000019
1071.984	8.479999542
1072.515	11.57999992
1073.047	17.71999931
1073.578	8.199999809
1074.109	3.119999886
1074.641	6
1075.172	6.360000134
1075.703	1.080000043
1076.234	19.52000046
1076.765	-5.739999771
1077.296	2.720000029
1077.826	1.5
1078.357	5.900000095
1078.888	13.34000015
1079.419	2.319999933
1079.949	3.380000114
1080.480	-1.700000048
1081.010	1.379999995
1081.541	-8.739999771
1082.071	0.879999995
1082.601	11.76000023
1083.131	-0.239999995
1083.661	4.039999962
1084.192	3.099999905
1084.722	-2.200000048
1085.252	1.980000019
1085.781	1.940000057
1086.311	-0.300000012
1086.841	7.199999809
1087.371	-4.300000191
1087.901	1.360000014
1088.430	-6.119999886
1088.960	5.440000057
1089.489	-2.24000001
1090.019	0.360000014
1090.548	-4.519999981
1091.077	-8.260000229
1091.606	-1.5
1092.135	4.599999905
1092.665	-17.28000069
1093.194	0.519999981
1093.723	-4.639999866
1094.251	-8.739999771
1094.780	-5.28000021
1095.309	-8.43999958
1095.838	-5.840000153
1096.366	0.119999997
1096.895	0.200000003
1097.424	-11.47999954
1097.952	-10.88000011
1098.480	3.859999895
1099.009	-9.779999733
1099.537	-3.019999981
1100.065	-5.619999886
