Talasna duzina_Zuta [nm]	 Intenzitet svetlosti_Zuta [cd]
177.812	119.6399994
178.410	116.8600006
179.008	124.4000015
179.607	123.1600037
180.205	119.1800003
180.803	112
181.401	123.6399994
182.000	117.3199997
182.598	126.6600037
183.196	120.5400009
183.794	114.3600006
184.392	128.2599945
184.990	121.9000015
185.588	117.5400009
186.186	122.5400009
186.784	129.7200012
187.382	119.7600021
187.980	114.5199966
188.578	122.2600021
189.176	121.8199997
189.774	111.1600037
190.371	114.5400009
190.969	119.9400024
191.567	127.5199966
192.165	104.1600037
192.763	129.1799927
193.360	126.1800003
193.958	124.2200012
194.556	115.4599991
195.153	123.3600006
195.751	132.1199951
196.349	114.6399994
196.946	130.7400055
197.544	121.7799988
198.141	121.0999985
198.739	123.8399963
199.336	128.0200043
199.934	117.5199966
200.531	122.4000015
201.128	114.4800034
201.726	116.9199982
202.323	121.5999985
202.920	113.2200012
203.518	115.1800003
204.115	115.8600006
204.712	109.6600037
205.310	102.4000015
205.907	111.4599991
206.504	111.7600021
207.101	115.8399963
207.698	111.6200027
208.295	102.6800003
208.892	102.9599991
209.489	110.1999969
210.087	113.3600006
210.684	111.9199982
211.280	105.8000031
211.877	113.2799988
212.474	108.9400024
213.071	112.5199966
213.668	108.3000031
214.265	102.3600006
214.862	104.1399994
215.459	95.13999939
216.055	100.3199997
216.652	101.4800034
217.249	106.4400024
217.846	98.30000305
218.442	109.4400024
219.039	108.8600006
219.636	108.5999985
220.232	93.33999634
220.829	98.94000244
221.425	112.7399979
222.022	99.5
222.618	106.1200027
223.215	100.0599976
223.811	102.9800034
224.408	101.7799988
225.004	106.0599976
225.601	93
226.197	110.1399994
226.793	105.8000031
227.390	98.08000183
227.986	90.76000214
228.582	101.6999969
229.178	93.73999786
229.774	105.6399994
230.371	101.0800018
230.967	102.1999969
231.563	100.7399979
232.159	92.04000092
232.755	104.5199966
233.351	99.95999908
233.947	91.54000092
234.543	106.5599976
235.139	97.33999634
235.735	94.31999969
236.331	98.98000336
236.927	89.98000336
237.523	86.08000183
238.119	100.6200027
238.714	87.59999847
239.310	94.33999634
239.906	95.40000153
240.502	106.2200012
241.097	97.40000153
241.693	90.36000061
242.289	89.31999969
242.884	98.01999664
243.480	80.51999664
244.076	93.23999786
244.671	109.9599991
245.267	101.2600021
245.862	95.69999695
246.458	107.9199982
247.053	83.72000122
247.648	100.4199982
248.244	94.16000366
248.839	94.83999634
249.435	100.8799973
250.030	94.01999664
250.625	87.81999969
251.220	97.98000336
251.816	78.83999634
252.411	84.59999847
253.006	91.27999878
253.601	89.04000092
254.196	91.40000153
254.791	91.22000122
255.387	99.27999878
255.982	84.95999908
256.577	89.66000366
257.172	88.22000122
257.767	91.16000366
258.362	101.7600021
258.956	80.40000153
259.551	86.58000183
260.146	83.83999634
260.741	85.62000275
261.336	87.13999939
261.931	98.81999969
262.525	84.36000061
263.120	93.63999939
263.715	93.95999908
264.310	95.76000214
264.904	90.16000366
265.499	88.40000153
266.093	90.23999786
266.688	86.33999634
267.282	88.94000244
267.877	95.72000122
268.471	84.05999756
269.066	80.18000031
269.660	67.98000336
270.255	75.44000244
270.849	62.81999969
271.443	73.16000366
272.038	79.36000061
272.632	85.95999908
273.226	94.77999878
273.821	117.2399979
274.415	110.1800003
275.009	110.4400024
275.603	96.68000031
276.197	97.87999725
276.791	97.08000183
277.385	91.37999725
277.979	86.77999878
278.574	83.81999969
279.168	82.69999695
279.761	80.95999908
280.355	68.83999634
280.949	66.81999969
281.543	77.22000122
282.137	72.37999725
282.731	78.48000336
283.325	84.83999634
283.918	93.94000244
284.512	104.8799973
285.106	111.1800003
285.700	120.1600037
286.293	114.1200027
286.887	122.1800003
287.480	103.1600037
288.074	105
288.668	89.45999908
289.261	94.16000366
289.855	109.1399994
290.448	91.83999634
291.042	93.51999664
291.635	97.31999969
292.228	98.01999664
292.822	103.5999985
293.415	96.51999664
294.008	92.94000244
294.602	85.95999908
295.195	90.40000153
295.788	85.87999725
296.381	91.51999664
296.974	97.22000122
297.567	106.3799973
298.160	104.9199982
298.754	115.5999985
299.347	101.9000015
299.940	98.73999786
300.533	96.18000031
301.126	95.01999664
301.718	103.7399979
302.311	102.7799988
302.904	90.08000183
303.497	97.80000305
304.090	81.69999695
304.683	102.8000031
305.275	105.1999969
305.868	96.41999817
306.461	101.6999969
307.053	104.4599991
307.646	101.7399979
308.239	102.0599976
308.831	103.7200012
309.424	93.22000122
310.016	96.31999969
310.609	103.2799988
311.201	94.09999847
311.794	96.91999817
312.386	98.5
312.979	98.04000092
313.571	103.6399994
314.163	109.1399994
314.756	113.6200027
315.348	114.3799973
315.940	91.19999695
316.532	117.3600006
317.124	101.6999969
317.717	110.9800034
318.309	104.2200012
318.901	102.6600037
319.493	96.87999725
320.085	113.2399979
320.677	106.0599976
321.269	106.6999969
321.861	101.4000015
322.453	111.1399994
323.045	115.8799973
323.636	116.5400009
324.228	98.69999695
324.820	98.77999878
325.412	111.1200027
326.003	112.1999969
326.595	98.05999756
327.187	106.9800034
327.779	104.7600021
328.370	120.8799973
328.962	112.6800003
329.553	109.6800003
330.145	110.4599991
330.736	98.63999939
331.328	106.6399994
331.919	110.6600037
332.511	103.1600037
333.102	114.1200027
333.693	103.3799973
334.285	116.6800003
334.876	115.5800018
335.467	103.4599991
336.058	110.3600006
336.650	109
337.241	114.0999985
337.832	109.3199997
338.423	106.7200012
339.014	95.51999664
339.605	105.6600037
340.196	108
340.787	115.3799973
341.378	104.8799973
341.969	116.9599991
342.560	114.2200012
343.151	114.0800018
343.742	110.9000015
344.332	105.0199966
344.923	108.3799973
345.514	106.1800003
346.105	117.5800018
346.695	105.6999969
347.286	111.3399963
347.877	115.8799973
348.467	107.2600021
349.058	116.1399994
349.648	107.5999985
350.239	115.3000031
350.829	107.5400009
351.420	110.4199982
352.010	114.7200012
352.601	105.0800018
353.191	112.9800034
353.781	102.4800034
354.371	108.7200012
354.962	99.81999969
355.552	107.4599991
356.142	112.5400009
356.732	106.2799988
357.322	117.6200027
357.913	107.4000015
358.503	109.3399963
359.093	114.6600037
359.683	115.9800034
360.273	99.54000092
360.863	104.9599991
361.453	129.3800049
362.042	110.7399979
362.632	113.7399979
363.222	110.6200027
363.812	98.41999817
364.402	98.72000122
364.991	113.3600006
365.581	107.6800003
366.171	114.5
366.760	115.0999985
367.350	105.1399994
367.940	106.0999985
368.529	103.4000015
369.119	102.1200027
369.708	100.5999985
370.298	110.3399963
370.887	104.8000031
371.476	107.9199982
372.066	110.3000031
372.655	106
373.244	105.9400024
373.834	100.2799988
374.423	96.37999725
375.012	108.6600037
375.601	104.1999969
376.190	98.77999878
376.779	106.7399979
377.368	85.51999664
377.957	105.5199966
378.546	97.23999786
379.135	101.9599991
379.724	107.6800003
380.313	104.8799973
380.902	98.05999756
381.491	100.9199982
382.080	107.9199982
382.669	90.31999969
383.257	110.6399994
383.846	107.3000031
384.435	108.3000031
385.023	92.66000366
385.612	102.3000031
386.201	112.5199966
386.789	107.2399979
387.378	95.51999664
387.966	93.66000366
388.555	96.13999939
389.143	110.9800034
389.732	100.6999969
390.320	96.01999664
390.908	105.8799973
391.497	94.76000214
392.085	97.86000061
392.673	95.90000153
393.261	99.13999939
393.849	99.40000153
394.438	113.3399963
395.026	98.73999786
395.614	106.9199982
396.202	109.5
396.790	105.1600037
397.378	103.5599976
397.966	109.8399963
398.554	108.9800034
399.142	99.68000031
399.729	93.23999786
400.317	112.0800018
400.905	104.1600037
401.493	108.5599976
402.080	115.1600037
402.668	93.62000275
403.256	97.22000122
403.843	115.2399979
404.431	104
405.019	101.3799973
405.606	113.4800034
406.194	90.27999878
406.781	101.4800034
407.368	108.3000031
407.956	109.9400024
408.543	104.8199997
409.131	108.3399963
409.718	101.4800034
410.305	99.30000305
410.892	110.2799988
411.479	107.1999969
412.067	108.0199966
412.654	112.8600006
413.241	103.2799988
413.828	106.6999969
414.415	111.6600037
415.002	109.0999985
415.589	112.8799973
416.176	97.51999664
416.763	105.6600037
417.350	106.4400024
417.936	110.7399979
418.523	111.1399994
419.110	112.4199982
419.697	111.0800018
420.283	123.6800003
420.870	114.8799973
421.457	114.1999969
422.043	111.9400024
422.630	105.0400009
423.216	101.6999969
423.803	111.6399994
424.389	102.5800018
424.976	103.2600021
425.562	110.5999985
426.148	112.8600006
426.735	106.4199982
427.321	115.5
427.907	111.8399963
428.494	107.4400024
429.080	103.6399994
429.666	131.1799927
430.252	115.5800018
430.838	103.8399963
431.424	117.3399963
432.010	117.5199966
432.596	113.6800003
433.182	121.3600006
433.768	110.2799988
434.354	129.5800018
434.940	123.0400009
435.526	123.7399979
436.111	108
436.697	115.4400024
437.283	111.0400009
437.869	130.0200043
438.454	126.4199982
439.040	132.7799988
439.625	130.8200073
440.211	127.4400024
440.796	132.3999939
441.382	107.3199997
441.967	126.1600037
442.553	120.5599976
443.138	127.3199997
443.723	152.0200043
444.309	141.5
444.894	147.6399994
445.479	143.8600006
446.064	147.6399994
446.650	142.0599976
447.235	159
447.820	164.2200012
448.405	153.1999969
448.990	149.0800018
449.575	152.1399994
450.160	163
450.745	170.1600037
451.330	162.3999939
451.915	162.0399933
452.499	166.8999939
453.084	180.6399994
453.669	188.0399933
454.254	179.1199951
454.838	185.8999939
455.423	184.6600037
456.008	175.5800018
456.592	192.6000061
457.177	195.5599976
457.761	186.8600006
458.346	188.8200073
458.930	192.1999969
459.514	189.3200073
460.099	188.0399933
460.683	196.3999939
461.267	200.0800018
461.852	198.5399933
462.436	197.5800018
463.020	197.5
463.604	214.1000061
464.188	216.0399933
464.772	221.1000061
465.356	226.1999969
465.940	222.4199982
466.524	217.8600006
467.108	237.9600067
467.692	238.7200012
468.276	244.6399994
468.860	246.3600006
469.444	262.6799927
470.028	253.0800018
470.611	278.4599915
471.195	287.9200134
471.779	278.1799927
472.362	312.480011
472.946	322.3599854
473.529	331.5799866
474.113	344.5799866
474.696	357.2399902
475.280	377.5599976
475.863	397.3599854
476.447	425.4200134
477.030	437.2000122
477.613	458.5400085
478.197	486.480011
478.780	505.8399963
479.363	532.539978
479.946	583.1799927
480.529	615.5999756
481.112	650.8800049
481.695	693.2999878
482.278	748.0999756
482.861	787.8200073
483.444	846.5999756
484.027	886.4199829
484.610	939.2800293
485.193	993.9199829
485.776	1076.660034
486.358	1173.219971
486.941	1240.040039
487.524	1315.420044
488.106	1412.719971
488.689	1490.680054
489.272	1611.359985
489.854	1697.73999
490.437	1818.640015
491.019	1971.079956
491.602	2101.100098
492.184	2259.419922
492.766	2412.959961
493.349	2598.340088
493.931	2789.840088
494.513	2922.419922
495.095	3160.120117
495.678	3391.47998
496.260	3605.639893
496.842	3900.26001
497.424	4183.839844
498.006	4528.859863
498.588	4845.459961
499.170	5223.439941
499.752	5581.740234
500.334	6031.740234
500.916	6500.399902
501.497	6987.97998
502.079	7492.959961
502.661	8069.359863
503.243	8706.740234
503.824	9420.860352
504.406	10150.05957
504.987	10948.16016
505.569	11820.05957
506.151	12764.33984
506.732	13809.87988
507.313	14875.87988
507.895	16076.36035
508.476	17322.82031
509.058	18625.51953
509.639	20054.96094
510.220	21516.17969
510.801	23172
511.382	24855.46094
511.964	26610.74023
512.545	28417.58008
513.126	30237.93945
513.707	32229.06055
514.288	34244.57813
514.869	36210.92188
515.450	38184.98047
516.031	40397.30078
516.611	42322.67969
517.192	44227.48047
517.773	46108.44141
518.354	47994.14063
518.934	49693.26172
519.515	51395.26172
520.096	52967.80078
520.676	54427.83984
521.257	55720.28125
521.837	56741.26172
522.418	57914.37891
522.998	58675.37891
523.579	59537.66016
524.159	60103.80078
524.739	60437.66016
525.320	60711.71875
525.900	60814.42188
526.480	60717.46094
527.060	60565.73828
527.640	60177.12109
528.220	59771.30078
528.800	59144.66016
529.380	58542.73828
529.960	57705.48047
530.540	56754.23828
531.120	55682.55859
531.700	54790.19922
532.280	53607.71875
532.860	52413.16016
533.440	51329.51953
534.019	49990.83984
534.599	48690.64063
535.179	47553.07813
535.758	46243
536.338	44766.5
536.917	43459.51953
537.497	42274.30078
538.076	41037.12109
538.656	39755.39844
539.235	38592.85938
539.814	37455.87891
540.393	36328.55859
540.973	35051.26172
541.552	34013.69922
542.131	33052.87891
542.710	31931.2793
543.289	30973.51953
543.868	30059.91992
544.447	29055.30078
545.026	28166.93945
545.605	27305.06055
546.184	26378.58008
546.763	25470.06055
547.342	24646.01953
547.921	23725.46094
548.499	22932.7793
549.078	22073.59961
549.657	21269.38086
550.235	20497.91992
550.814	19743.08008
551.393	18907.2207
551.971	18149.82031
552.550	17485.66016
553.128	16741.30078
553.706	16115.13965
554.285	15394.71973
554.863	14823.09961
555.441	14152.91992
556.020	13614.87988
556.598	13101.13965
557.176	12516.04004
557.754	11920.95996
558.332	11380
558.910	10947.62012
559.488	10513.37988
560.066	10061.5
560.644	9606.339844
561.222	9255.019531
561.800	8818.160156
562.378	8488.900391
562.955	8146.279785
563.533	7796.899902
564.111	7488.140137
564.688	7198.319824
565.266	6905.839844
565.844	6669.740234
566.421	6370.620117
566.999	6147.600098
567.576	5884.339844
568.154	5676.120117
568.731	5421.459961
569.308	5217.939941
569.886	5018.939941
570.463	4858.580078
571.040	4650.319824
571.617	4470.919922
572.194	4357.120117
572.771	4122.959961
573.349	3979.139893
573.926	3829.459961
574.503	3714.919922
575.079	3568.26001
575.656	3437.040039
576.233	3321.52002
576.810	3226.26001
577.387	3153.139893
577.964	2993.280029
578.540	2905.540039
579.117	2843.23999
579.693	2720.860107
580.270	2637.340088
580.847	2585.959961
581.423	2525.600098
582.000	2445.340088
582.576	2388.320068
583.152	2353.97998
583.729	2291.800049
584.305	2283.879883
584.881	2231.560059
585.457	2208.179932
586.034	2192.439941
586.610	2205.76001
587.186	2160.459961
587.762	2196.97998
588.338	2170.320068
588.914	2240.340088
589.490	2254.620117
590.066	2287.399902
590.641	2322.820068
591.217	2356.179932
591.793	2383.47998
592.369	2438.560059
592.945	2497.620117
593.520	2579.659912
594.096	2721.47998
594.671	2847.060059
595.247	2941.780029
595.822	3071.199951
596.398	3181.600098
596.973	3285.139893
597.549	3411.399902
598.124	3558.639893
598.699	3690.5
599.274	3912.97998
599.850	4156.419922
600.425	4453.359863
601.000	4756.580078
601.575	5124.220215
602.150	5435.02002
602.725	5743.740234
603.300	6104.580078
603.875	6437.540039
604.450	6784.220215
605.024	7206
605.599	7824.100098
606.174	8468.519531
606.749	9263.540039
607.323	10118.74023
607.898	11114.21973
608.473	11926.98047
609.047	12871.04004
609.622	13760.54004
610.196	14635.45996
610.771	15574.33984
611.345	16637.66016
611.919	17780.67969
612.493	19070.43945
613.068	20547.56055
613.642	22155.90039
614.216	23716.58008
614.790	25360.43945
615.364	26823.53906
615.938	27968.7793
616.512	29056.66016
617.086	30051.46094
617.660	31018.75977
618.234	32149.2207
618.808	33577.60156
619.382	35106.96094
619.955	36839.94141
620.529	39602.03906
621.103	43619.10156
621.676	46704.32031
622.250	50619.30078
622.824	52289.05859
623.397	55478.67969
623.971	56956.14063
624.544	58527.80078
625.117	59162.60156
625.691	60077.64063
626.264	60484.44141
626.837	60771.48047
627.410	60594.17969
627.984	59792.33984
628.557	58174.62109
629.130	56228.96094
629.703	53506.53906
630.276	50330.03906
630.849	46927.73828
631.422	43436.71875
631.994	40044.30078
632.567	36672.14063
633.140	33392.05859
633.713	30493.56055
634.285	27412.80078
634.858	24658.88086
635.431	21758.61914
636.003	19160.30078
636.576	16604.82031
637.148	14568.95996
637.721	12685.94043
638.293	11147.08008
638.865	9933.05957
639.438	8858.820313
640.010	7932.160156
640.582	7113.52002
641.154	6381.879883
641.727	5686.919922
642.299	5015.02002
642.871	4505.240234
643.443	3921.080078
644.015	3492.76001
644.587	3121.919922
645.159	2774.780029
645.730	2510.679932
646.302	2266.040039
646.874	2015.880005
647.446	1830.599976
648.017	1673.880005
648.589	1509.160034
649.161	1346.319946
649.732	1246.280029
650.304	1119.140015
650.875	1043.880005
651.446	954.3599854
652.018	858.7399902
652.589	811.6199951
653.160	761.6400146
653.732	699.4000244
654.303	659.2999878
654.874	736.960022
655.445	720.460022
656.016	599.7000122
656.587	627.4000244
657.158	492.0599976
657.729	593.8800049
658.300	393.5
658.871	425.8200073
659.442	329.6000061
660.012	342.3399963
660.583	285.2200012
661.154	268.6199951
661.724	256.8200073
662.295	252.8999939
662.866	219.1999969
663.436	204.5399933
664.007	199.8600006
664.577	204.8600006
665.147	189.7599945
665.718	195.7799988
666.288	177.3600006
666.858	188.8600006
667.428	169.8600006
667.999	172.0399933
668.569	176.0200043
669.139	162.6600037
669.709	168.1399994
670.279	165.8000031
670.849	162.2400055
671.418	163.1000061
671.988	151.1799927
672.558	152.0599976
673.128	161.4199982
673.698	172.7200012
674.267	167.6600037
674.837	170.0599976
675.406	160.8399963
675.976	175.5800018
676.545	165.2200012
677.115	175.7200012
677.684	180.9199982
678.254	178.4600067
678.823	185.2400055
679.392	196.6799927
679.961	191.9400024
680.531	197.8200073
681.100	204.3800049
681.669	210.1000061
682.238	216.6000061
682.807	217.0800018
683.376	217.2400055
683.945	235.0200043
684.514	245.5200043
685.082	238.1999969
685.651	242.4600067
686.220	246.5599976
686.789	218.5399933
687.357	247.9799957
687.926	246.3000031
688.494	238.9400024
689.063	215.0200043
689.631	229.2200012
690.200	232.0399933
690.768	214.2200012
691.337	217.8600006
691.905	217.0200043
692.473	212.5800018
693.041	225.9199982
693.609	216.9199982
694.178	208.9799957
694.746	218.1600037
695.314	204.1600037
695.882	204.0800018
696.450	217.8399963
697.017	202.7400055
697.585	196.1000061
698.153	196.1000061
698.721	199.1399994
699.288	187.8399963
699.856	185.9799957
700.424	183.9199982
700.991	177.6199951
701.559	182.8200073
702.126	183.8200073
702.694	176.4400024
703.261	174.8999939
703.828	185.0599976
704.396	193.6399994
704.963	173.2200012
705.530	176.6799927
706.097	162.3600006
706.664	168.4600067
707.232	172.1399994
707.799	174.5800018
708.365	167.3600006
708.932	170.9400024
709.499	164.3600006
710.066	165.3600006
710.633	170.0800018
711.200	163.1000061
711.766	167
712.333	166.4600067
712.900	159.6000061
713.466	154.3999939
714.033	150.3800049
714.599	156.4799957
715.166	149.1199951
715.732	154.9799957
716.298	152.4600067
716.865	141.6199951
717.431	140.2200012
717.997	159.7599945
718.563	144.6199951
719.129	148.6999969
719.695	145.0399933
720.261	139.4799957
720.827	144.1999969
721.393	128.8600006
721.959	132.1999969
722.525	126.6600037
723.091	118.8399963
723.656	126.9599991
724.222	117.7399979
724.788	125.2399979
725.353	134.6799927
725.919	126.3000031
726.484	120.9800034
727.050	130.7799988
727.615	117.6200027
728.181	115.4199982
728.746	121.4000015
729.311	118.3600006
729.876	114.5
730.442	119.9599991
731.007	106.0199966
731.572	115.7399979
732.137	110.9400024
732.702	118.1999969
733.267	119
733.832	99.63999939
734.397	117.8600006
734.961	111.8399963
735.526	111.3600006
736.091	108.1800003
736.655	111.9400024
737.220	105.6999969
737.785	111.0999985
738.349	100.2200012
738.914	97.91999817
739.478	114.9599991
740.042	105.6999969
740.607	102.4599991
741.171	105.3600006
741.735	95.87999725
742.299	88.18000031
742.864	102.5
743.428	97.16000366
743.992	81.22000122
744.556	83.23999786
745.120	104.1999969
745.684	85.83999634
746.248	69.19999695
746.811	78.51999664
747.375	75.77999878
747.939	84.98000336
748.503	68.45999908
749.066	74.55999756
749.630	70.48000336
750.193	69.37999725
750.757	69.98000336
751.320	60.11999893
751.884	52.95999908
752.447	68.77999878
753.010	62
753.573	52.38000107
754.137	51.04000092
754.700	51.06000137
755.263	59.91999817
755.826	50.02000046
756.389	51.97999954
756.952	48.56000137
757.515	56.45999908
758.078	45.24000168
758.641	51.13999939
759.203	35.93999863
759.766	51.91999817
760.329	36.15999985
760.891	44.11999893
761.454	37.27999878
762.016	49.72000122
762.579	51.77999878
763.141	40.68000031
763.704	36.61999893
764.266	42.43999863
764.828	38.65999985
765.391	48.18000031
765.953	33.63999939
766.515	42.91999817
767.077	37.88000107
767.639	35.20000076
768.201	38.95999908
768.763	35.45999908
769.325	41.54000092
769.887	39.06000137
770.449	41.52000046
771.010	36.63999939
771.572	32.5
772.134	36.86000061
772.695	25.68000031
773.257	32
773.818	40.34000015
774.380	37.77999878
774.941	31.15999985
775.503	27.78000069
776.064	44.15999985
776.625	34.88000107
777.187	31.04000092
777.748	29.02000046
778.309	32.29999924
778.870	28.60000038
779.431	25.60000038
779.992	39.61999893
780.553	34.61999893
781.114	20.28000069
781.675	36.88000107
782.235	24.79999924
782.796	27.47999954
783.357	37.91999817
783.918	35.74000168
784.478	34.59999847
785.039	31.81999969
785.599	34.11999893
786.160	34.86000061
786.720	45.43999863
787.280	27.86000061
787.841	23.21999931
788.401	40.88000107
788.961	31.57999992
789.521	28.44000053
790.081	27.36000061
790.641	34.88000107
791.201	28.97999954
791.761	23.31999969
792.321	42.65999985
792.881	26.20000076
793.441	31.05999947
794.001	28.23999977
794.560	26.15999985
795.120	24.18000031
795.680	29.05999947
796.239	22.31999969
796.799	23.26000023
797.358	18.60000038
797.918	19.36000061
798.477	22.71999931
799.036	31.68000031
799.596	26.92000008
800.155	20.73999977
800.714	34.41999817
801.273	31.86000061
801.832	22.87999916
802.391	12.42000008
802.950	33.04000092
803.509	29.76000023
804.068	30.21999931
804.627	27.07999992
805.186	19.60000038
805.744	33.36000061
806.303	26.07999992
806.862	22.78000069
807.420	22.5
807.979	28.63999939
808.537	35.25999832
809.096	23.29999924
809.654	33.52000046
810.212	22.45999908
810.771	21.71999931
811.329	27.34000015
811.887	15.06000042
812.445	28.20000076
813.003	13.23999977
813.561	29.84000015
814.119	25.52000046
814.677	25.73999977
815.235	17.23999977
815.793	20.86000061
816.351	18.86000061
816.908	19.21999931
817.466	24.54000092
818.024	16.23999977
818.581	29.54000092
819.139	28.07999992
819.696	11.15999985
820.253	20.45999908
820.811	29.70000076
821.368	31.02000046
821.925	29.45999908
822.483	29.13999939
823.040	22.95999908
823.597	18.63999939
824.154	30.37999916
824.711	33.45999908
825.268	30.95999908
825.825	35.20000076
826.382	26.70000076
826.939	25.28000069
827.495	39.18000031
828.052	16.28000069
828.609	24.37999916
829.165	20.79999924
829.722	33.5
830.278	15.35999966
830.835	27.13999939
831.391	28.44000053
831.948	14.34000015
832.504	23.78000069
833.060	32.79999924
833.616	26.36000061
834.172	23.10000038
834.729	22.81999969
835.285	18.71999931
835.841	21.84000015
836.397	14.38000011
836.952	28.39999962
837.508	32.29999924
838.064	23.92000008
838.620	29.42000008
839.176	13.38000011
839.731	37.20000076
840.287	30.55999947
840.842	37.08000183
841.398	37.72000122
841.953	28.23999977
842.509	22.76000023
843.064	30.20000076
843.619	31.55999947
844.174	23.52000046
844.730	16.34000015
845.285	32.22000122
845.840	27.28000069
846.395	28.37999916
846.950	27.39999962
847.505	25.73999977
848.060	32.47999954
848.614	19.57999992
849.169	29.05999947
849.724	27.71999931
850.278	28.15999985
850.833	38
851.388	18.37999916
851.942	28.89999962
852.497	27.04000092
853.051	19.15999985
853.605	14.06000042
854.160	30.21999931
854.714	21.10000038
855.268	24.70000076
855.822	25.54000092
856.376	20.57999992
856.930	24.23999977
857.484	19.63999939
858.038	31.97999954
858.592	31.42000008
859.146	8.840000153
859.700	31.04000092
860.253	22.36000061
860.807	10.52000046
861.361	26.73999977
861.914	32.65999985
862.468	21.04000092
863.021	22.12000084
863.575	24.15999985
864.128	13.60000038
864.681	34.09999847
865.235	16.55999947
865.788	19.86000061
866.341	22.71999931
866.894	22.39999962
867.447	22.42000008
868.000	21.37999916
868.553	25.57999992
869.106	21.84000015
869.659	22.07999992
870.211	27.45999908
870.764	13.96000004
871.317	25.73999977
871.870	27.28000069
872.422	22.84000015
872.975	23.29999924
873.527	20.92000008
874.079	26.63999939
874.632	23.73999977
875.184	34.88000107
875.736	20.12000084
876.289	24.37999916
876.841	22.68000031
877.393	24.13999939
877.945	29.04000092
878.497	15.72000027
879.049	17.02000046
879.601	17.62000084
880.152	9.079999924
880.704	21.84000015
881.256	18.63999939
881.808	29.52000046
882.359	15.57999992
882.911	19.97999954
883.462	23.52000046
884.014	31.63999939
884.565	19.42000008
885.117	7.260000229
885.668	24.70000076
886.219	22.89999962
886.770	12.65999985
887.321	8.93999958
887.872	8.420000076
888.424	20.86000061
888.974	11.5
889.525	22.15999985
890.076	23.36000061
890.627	14.65999985
891.178	19.29999924
891.729	24
892.279	19.18000031
892.830	20.71999931
893.380	19.15999985
893.931	23.62000084
894.481	27.87999916
895.032	24.71999931
895.582	22.21999931
896.132	16.92000008
896.682	20.57999992
897.233	15.92000008
897.783	17.55999947
898.333	18.81999969
898.883	17.81999969
899.433	19.21999931
899.983	13.81999969
900.533	5.380000114
901.082	17.65999985
901.632	22.87999916
902.182	24.47999954
902.731	18.97999954
903.281	25.28000069
903.831	12.14000034
904.380	19.05999947
904.929	13.35999966
905.479	15.14000034
906.028	18.65999985
906.577	29.21999931
907.127	17.73999977
907.676	14.89999962
908.225	27.10000038
908.774	14.96000004
909.323	20.15999985
909.872	20.18000031
910.421	14.34000015
910.969	13.76000023
911.518	12.27999973
912.067	20.89999962
912.616	1.779999971
913.164	8.819999695
913.713	6.239999771
914.261	17.87999916
914.810	17.81999969
915.358	26.05999947
915.906	21.04000092
916.455	19.94000053
917.003	17.97999954
917.551	8.819999695
918.099	10.14000034
918.647	17.76000023
919.195	14.93999958
919.743	13.81999969
920.291	16.65999985
920.839	22.84000015
921.387	13.03999996
921.934	16.5
922.482	15.76000023
923.030	13.46000004
923.577	8.800000191
924.125	24.37999916
924.672	11.56000042
925.219	14.76000023
925.767	22.07999992
926.314	10.64000034
926.861	8.93999958
927.409	15.52000046
927.956	15.65999985
928.503	13.85999966
929.050	11.06000042
929.597	11.68000031
930.143	10.69999981
930.690	7.760000229
931.237	13.06000042
931.784	6.579999924
932.331	14.56000042
932.877	13.23999977
933.424	8.720000267
933.970	10.69999981
934.517	10.97999954
935.063	5.800000191
935.609	6.880000114
936.156	10.23999977
936.702	8.399999619
937.248	9.140000343
937.794	10.15999985
938.340	13.69999981
938.886	6.559999943
939.432	10.69999981
939.978	11.03999996
940.524	12.5
941.070	9.640000343
941.616	11.68000031
942.161	10.42000008
942.707	10.68000031
943.252	7.159999847
943.798	0.980000019
944.343	4.21999979
944.889	8.199999809
945.434	5.440000057
945.979	9.399999619
946.525	11.88000011
947.070	0.540000021
947.615	10.96000004
948.160	10.47999954
948.705	-0.74000001
949.250	6.559999943
949.795	-5.980000019
950.340	18.95999908
950.884	-3.079999924
951.429	7.599999905
951.974	7.679999828
952.518	10.43999958
953.063	-3.079999924
953.607	4.21999979
954.152	11.10000038
954.696	1.980000019
955.241	2.059999943
955.785	8.859999657
956.329	12.03999996
956.873	3.539999962
957.417	-0.920000017
957.961	7.920000076
958.505	5.579999924
959.049	11.60000038
959.593	6.340000153
960.137	1.899999976
960.681	10.02000046
961.224	6.940000057
961.768	6.800000191
962.312	7
962.855	-0.219999999
963.399	-3.519999981
963.942	2.980000019
964.486	12.89999962
965.029	4.940000057
965.572	7.159999847
966.115	10.56000042
966.658	3.720000029
967.202	5.019999981
967.745	-7.699999809
968.288	4.28000021
968.830	-0.379999995
969.373	15.92000008
969.916	2.380000114
970.459	-0.300000012
971.002	-1.460000038
971.544	-1.200000048
972.087	1.139999986
972.629	-1.399999976
973.172	1.139999986
973.714	-0.800000012
974.256	3.599999905
974.799	4.340000153
975.341	1.340000033
975.883	0.119999997
976.425	9.979999542
976.967	1.159999967
977.509	-0.360000014
978.051	3
978.593	16.63999939
979.135	8.079999924
979.677	4
980.218	-1.820000052
980.760	0.540000021
981.302	-3.599999905
981.843	1.24000001
982.385	0.699999988
982.926	2.799999952
983.467	12.03999996
984.009	-0.419999987
984.550	3.75999999
985.091	-6.199999809
985.632	-3.640000105
986.173	-3.579999924
986.714	3.900000095
987.255	-9.159999847
987.796	-5.699999809
988.337	5.619999886
988.878	9.680000305
989.419	-5.739999771
989.959	-4.599999905
990.500	-7.099999905
991.040	-6.260000229
991.581	-10.93999958
992.121	2.079999924
992.662	1.639999986
993.202	-1.940000057
993.742	1.720000029
994.282	-0.579999983
994.823	7.5
995.363	7.380000114
995.903	-10.30000019
996.443	12.18000031
996.983	-7.420000076
997.522	-9.079999924
998.062	-13.56000042
998.602	1.440000057
999.142	-2.74000001
999.681	-7.739999771
1000.221	2.339999914
1000.760	-4.019999981
1001.300	-13.93999958
1001.839	-8.680000305
1002.379	3.880000114
1002.918	4.860000134
1003.457	-5.840000153
1003.996	-8.199999809
1004.535	-4.400000095
1005.074	-8.699999809
1005.613	-7.5
1006.152	-9.520000458
1006.691	-3.660000086
1007.230	-2.200000048
1007.769	3.380000114
1008.307	-12.81999969
1008.846	-2.5
1009.384	-8.760000229
1009.923	-16.39999962
1010.461	-5.920000076
1011.000	1.24000001
1011.538	-9.56000042
1012.076	-1.360000014
1012.615	-2.74000001
1013.153	-4.739999771
1013.691	2.400000095
1014.229	-6.039999962
1014.767	-3.980000019
1015.305	-7.860000134
1015.843	-2.74000001
1016.380	-5.119999886
1016.918	6.360000134
1017.456	-6.760000229
1017.993	-12.73999977
1018.531	-4.340000153
1019.069	-6.159999847
1019.606	-15.84000015
1020.143	-16.13999939
1020.681	-14.96000004
1021.218	0.680000007
1021.755	-2.160000086
1022.292	-0.200000003
1022.829	6.5
1023.366	-0.860000014
1023.903	-6.179999828
1024.440	4.400000095
1024.977	-1.440000057
1025.514	-6.699999809
1026.051	0.639999986
1026.587	-3.059999943
1027.124	-4.679999828
1027.661	-14.35999966
1028.197	-3.720000029
1028.733	0.600000024
1029.270	-3.75999999
1029.806	-3.720000029
1030.342	-7.320000172
1030.879	1.980000019
1031.415	-4.840000153
1031.951	0.5
1032.487	2.940000057
1033.023	-10.5
1033.559	-5.960000038
1034.094	3.980000019
1034.630	-6.71999979
1035.166	-9.520000458
1035.702	-8.640000343
1036.237	-4.360000134
1036.773	-6.079999924
1037.308	-6.460000038
1037.844	10.69999981
1038.379	-7.320000172
1038.914	-5.960000038
1039.449	-6.539999962
1039.985	-17.76000023
1040.520	-2.380000114
1041.055	-11.10000038
1041.590	-0.74000001
1042.125	1.539999962
1042.660	-8.43999958
1043.194	-11.38000011
1043.729	-1.320000052
1044.264	8.380000114
1044.798	-11.23999977
1045.333	6.400000095
1045.868	0.140000001
1046.402	-3.920000076
1046.936	-5.21999979
1047.471	3.519999981
1048.005	-2.019999981
1048.539	7.139999866
1049.073	0.920000017
1049.607	-7.559999943
1050.141	-8.100000381
1050.675	3.599999905
1051.209	1.379999995
1051.743	6.940000057
1052.277	-1.960000038
1052.811	6.820000172
1053.344	-2.799999952
1053.878	8.579999924
1054.411	7
1054.945	6.739999771
1055.478	4.71999979
1056.012	11.43999958
1056.545	-0.639999986
1057.078	8.020000458
1057.611	8.659999847
1058.145	2.819999933
1058.678	14.47999954
1059.211	6.960000038
1059.744	27.15999985
1060.276	18.37999916
1060.809	16.42000008
1061.342	3.400000095
1061.875	6.940000057
1062.407	6.619999886
1062.940	-3.960000038
1063.472	8.140000343
1064.005	6.539999962
1064.537	10.93999958
1065.069	2.440000057
1065.602	11.07999992
1066.134	16.47999954
1066.666	14.47999954
1067.198	22.87999916
1067.730	4.699999809
1068.262	10.07999992
1068.794	15.35999966
1069.326	13.76000023
1069.857	10.15999985
1070.389	11.76000023
1070.921	22.04000092
1071.452	20.92000008
1071.984	22.04000092
1072.515	20.12000084
1073.047	17.45999908
1073.578	19.86000061
1074.109	9.619999886
1074.641	26.65999985
1075.172	18.18000031
1075.703	23.5
1076.234	18.52000046
1076.765	21.95999908
1077.296	28.63999939
1077.826	13.47999954
1078.357	27.89999962
1078.888	26.70000076
1079.419	22.15999985
1079.949	33.54000092
1080.480	20.26000023
1081.010	18.87999916
1081.541	34.93999863
1082.071	32.54000092
1082.601	34.90000153
1083.131	28.94000053
1083.661	33.13999939
1084.192	35.86000061
1084.722	21.31999969
1085.252	27
1085.781	26.47999954
1086.311	22.54000092
1086.841	16.10000038
1087.371	34.90000153
1087.901	36.79999924
1088.430	31.36000061
1088.960	21.76000023
1089.489	33.97999954
1090.019	31.39999962
1090.548	30.79999924
1091.077	35.93999863
1091.606	33.81999969
1092.135	33.02000046
1092.665	30.34000015
1093.194	36.13999939
1093.723	25.57999992
1094.251	21.04000092
1094.780	20.65999985
1095.309	40.81999969
1095.838	20.10000038
1096.366	21.28000069
1096.895	29.28000069
1097.424	26.52000046
1097.952	25.07999992
1098.480	26.23999977
1099.009	12.64000034
1099.537	17.28000069
1100.065	32
